 # time(fs)      K.E.(eV)     P.E.(ev)      T.E.(eV)    Temp(k)
     1.00       24.9110     -541.4944     -516.5834   297.87
     2.00       26.8116     -543.4946     -516.6830   320.59
     3.00       31.5978     -548.7620     -517.1642   377.82
     4.00       35.3185     -553.6425     -518.3240   422.31
     5.00       34.1941     -554.4260     -520.2320   408.87
     6.00       28.2715     -550.6765     -522.4050   338.05
     7.00       21.7081     -546.0009     -524.2928   259.57
     8.00       18.7284     -544.5685     -525.8401   223.94
     9.00       20.0571     -547.2877     -527.2306   239.83
    10.00       23.2075     -551.7062     -528.4987   277.50
    11.00       25.2400     -554.8681     -529.6281   301.80
    12.00       24.8032     -555.4666     -530.6634   296.58
    13.00       22.1144     -553.6354     -531.5210   264.43
    14.00       18.4825     -550.4609     -531.9785   221.00
    15.00       16.3223     -548.3276     -532.0053   195.17
    16.00       17.9577     -549.7671     -531.8094   214.72
    17.00       22.9290     -554.3704     -531.4414   274.17
    18.00       27.2579     -557.9864     -530.7285   325.93
    19.00       27.3110     -556.9859     -529.6748   326.57
    20.00       24.1040     -552.6882     -528.5842   288.22
    21.00       21.6707     -549.3711     -527.7004   259.12
    22.00       22.1319     -549.0088     -526.8769   264.64
    23.00       24.7603     -550.5518     -525.7915   296.07
    24.00       28.6136     -553.1245     -524.5109   342.14
    25.00       32.8177     -556.3543     -523.5367   392.41
    26.00       34.5248     -557.7443     -523.2195   412.82
    27.00       30.9243     -554.2676     -523.3432   369.77
    28.00       24.4061     -547.9415     -523.5353   291.83
    29.00       21.3145     -545.1870     -523.8726   254.86
    30.00       24.3398     -548.8852     -524.5454   291.04
    31.00       29.2826     -554.6546     -525.3720   350.14
    32.00       30.5393     -556.7011     -526.1618   365.17
    33.00       27.6568     -554.7135     -527.0567   330.70
    34.00       23.9322     -552.0987     -528.1664   286.16
    35.00       21.0481     -550.2520     -529.2039   251.68
    36.00       18.9220     -548.6896     -529.7676   226.26
    37.00       18.7972     -548.6986     -529.9014   224.76
    38.00       22.2766     -552.2623     -529.9857   266.37
    39.00       27.2969     -557.4368     -530.1398   326.40
    40.00       28.6495     -558.7909     -530.1415   342.57
    41.00       24.5540     -554.3955     -529.8414   293.60
    42.00       19.7530     -549.2207     -529.4677   236.19
    43.00       19.5396     -548.8091     -529.2695   233.64
    44.00       23.5575     -552.5915     -529.0340   281.68
    45.00       27.4018     -555.7947     -528.3929   327.65
    46.00       28.6631     -556.1926     -527.5295   342.73
    47.00       28.5468     -555.5506     -527.0038   341.34
    48.00       27.6899     -554.6324     -526.9425   331.09
    49.00       24.8861     -551.7676     -526.8815   297.57
    50.00       21.3405     -547.8564     -526.5159   255.17
    51.00       21.5600     -547.7288     -526.1688   257.80
    52.00       27.0845     -553.2556     -526.1711   323.86
    53.00       32.3060     -558.6524     -526.3464   386.29
    54.00       30.7986     -557.2044     -526.4058   368.27
    55.00       24.4279     -550.8298     -526.4019   292.09
    56.00       20.5183     -547.1882     -526.6699   245.34
    57.00       21.6495     -548.8097     -527.1603   258.87
    58.00       24.1622     -551.5055     -527.3433   288.91
    59.00       25.3985     -552.4903     -527.0918   303.70
    60.00       26.7892     -553.7597     -526.9705   320.33
    61.00       28.5804     -555.9254     -527.3450   341.74
    62.00       27.2011     -554.9823     -527.7812   325.25
    63.00       21.6736     -549.4011     -527.7275   259.16
    64.00       17.7302     -545.1510     -527.4208   212.00
    65.00       20.8457     -548.2369     -527.3912   249.26
    66.00       28.1827     -555.6299     -527.4472   336.99
    67.00       31.6967     -558.8569     -527.1602   379.01
    68.00       28.7694     -555.5146     -526.7452   344.00
    69.00       24.5777     -551.3065     -526.7288   293.88
    70.00       23.2848     -550.4382     -527.1534   278.42
    71.00       23.4154     -550.8822     -527.4667   279.98
    72.00       23.2047     -550.5341     -527.3293   277.47
    73.00       24.5722     -551.7055     -527.1334   293.82
    74.00       28.5280     -555.8899     -527.3620   341.12
    75.00       30.7837     -558.6722     -527.8885   368.09
    76.00       27.0395     -555.2538     -528.2144   323.32
    77.00       20.4790     -548.6950     -528.2159   244.87
    78.00       18.4109     -546.7323     -528.3214   220.14
    79.00       22.6690     -551.3367     -528.6677   271.06
    80.00       27.7012     -556.4871     -528.7859   331.23
    81.00       28.3927     -556.8930     -528.5004   339.50
    82.00       26.1393     -554.4149     -528.2756   312.55
    83.00       24.6587     -553.1240     -528.4653   294.85
    84.00       23.8666     -552.6211     -528.7545   285.38
    85.00       22.1150     -550.7463     -528.6314   264.43
    86.00       21.3562     -549.5576     -528.2014   255.36
    87.00       24.8033     -552.7919     -527.9885   296.58
    88.00       30.1969     -558.2885     -528.0917   361.07
    89.00       30.8489     -558.9901     -528.1412   368.87
    90.00       25.2015     -553.1326     -527.9310   301.34
    91.00       19.8589     -547.6172     -527.7583   237.46
    92.00       20.5080     -548.4263     -527.9183   245.22
    93.00       24.9839     -553.0292     -528.0452   298.74
    94.00       27.8420     -555.5565     -527.7145   332.91
    95.00       28.0982     -555.3814     -527.2832   335.98
    96.00       28.1803     -555.5529     -527.3726   336.96
    97.00       27.6781     -555.5755     -527.8974   330.95
    98.00       24.3230     -552.5307     -528.2078   290.84
    99.00       20.1795     -548.2891     -528.1097   241.29
   100.00       20.5760     -548.6579     -528.0819   246.03
   101.00       26.1658     -554.5202     -528.3544   312.87
   102.00       30.6463     -559.2296     -528.5832   366.45
   103.00       28.8018     -557.3558     -528.5539   344.39
   104.00       23.4681     -551.9731     -528.5050   280.61
   105.00       20.7329     -549.4549     -528.7220   247.91
   106.00       21.8144     -550.8384     -529.0239   260.84
   107.00       23.6386     -552.5946     -528.9560   282.65
   108.00       24.8016     -553.3335     -528.5319   296.56
   109.00       26.6176     -554.8453     -528.2277   318.27
   110.00       28.6144     -556.8760     -528.2616   342.15
   111.00       27.6676     -555.9950     -528.3274   330.83
   112.00       23.4269     -551.5638     -528.1370   280.12
   113.00       20.5698     -548.4624     -527.8925   245.96
   114.00       22.9593     -550.8647     -527.9054   274.53
   115.00       28.1346     -556.1665     -528.0319   336.41
   116.00       30.2460     -558.2486     -528.0025   361.66
   117.00       27.6022     -555.5175     -527.9153   330.05
   118.00       23.9932     -552.0440     -528.0508   286.89
   119.00       22.6139     -551.0293     -528.4154   270.40
   120.00       22.7590     -551.4089     -528.6499   272.14
   121.00       23.1585     -551.6865     -528.5281   276.91
   122.00       24.7369     -553.0598     -528.3229   295.79
   123.00       27.7993     -556.1894     -528.3900   332.40
   124.00       29.2497     -557.9037     -528.6539   349.75
   125.00       26.2885     -555.0653     -528.7768   314.34
   126.00       21.4378     -550.1324     -528.6946   256.34
   127.00       20.0205     -548.7076     -528.6871   239.39
   128.00       23.3883     -552.1962     -528.8079   279.66
   129.00       27.5981     -556.3568     -528.7587   330.00
   130.00       28.7930     -557.2919     -528.4989   344.29
   131.00       27.3647     -555.7491     -528.3844   327.21
   132.00       25.5765     -554.1889     -528.6124   305.82
   133.00       23.9380     -552.8618     -528.9237   286.23
   134.00       22.2857     -551.2728     -528.9871   266.48
   135.00       22.1145     -550.9770     -528.8625   264.43
   136.00       24.8135     -553.6364     -528.8230   296.70
   137.00       28.4068     -557.3198     -528.9129   339.67
   138.00       28.9533     -557.9327     -528.9793   346.20
   139.00       25.6482     -554.6153     -528.9671   306.68
   140.00       22.0367     -551.0198     -528.9831   263.50
   141.00       21.5318     -550.6329     -529.1011   257.46
   142.00       23.8517     -553.0377     -529.1861   285.20
   143.00       26.3395     -555.4284     -529.0889   314.95
   144.00       27.2406     -556.1485     -528.9079   325.72
   145.00       26.7075     -555.5597     -528.8522   319.35
   146.00       25.3827     -554.3268     -528.9441   303.51
   147.00       23.6087     -552.6096     -529.0010   282.29
   148.00       22.2776     -551.1669     -528.8893   266.38
   149.00       22.9667     -551.6638     -528.6971   274.62
   150.00       26.0028     -554.5829     -528.5802   310.92
   151.00       28.9916     -557.5600     -528.5684   346.66
   152.00       28.8679     -557.4707     -528.6028   345.18
   153.00       25.6215     -554.2688     -528.6473   306.36
   154.00       22.4801     -551.2225     -528.7425   268.80
   155.00       22.1301     -551.0405     -528.9104   264.62
   156.00       24.1115     -553.1429     -529.0314   288.31
   157.00       26.1809     -555.1742     -528.9933   313.05
   158.00       27.0427     -555.9549     -528.9122   323.36
   159.00       26.8143     -555.8073     -528.9930   320.63
   160.00       25.6063     -554.8271     -529.2208   306.18
   161.00       23.4196     -552.7835     -529.3639   280.03
   162.00       21.4951     -550.7949     -529.2998   257.02
   163.00       21.9206     -551.0717     -529.1511   262.11
   164.00       24.9914     -554.0173     -529.0259   298.83
   165.00       28.0550     -556.9243     -528.8694   335.46
   166.00       28.2215     -556.8715     -528.6501   337.45
   167.00       25.7620     -554.2274     -528.4654   308.04
   168.00       23.5252     -551.9444     -528.4192   281.30
   169.00       23.4064     -551.8925     -528.4861   279.88
   170.00       24.7291     -553.2378     -528.5087   295.69
   171.00       25.9490     -554.3506     -528.4016   310.28
   172.00       26.6034     -554.8999     -528.2964   318.10
   173.00       26.8440     -555.2128     -528.3688   320.98
   174.00       26.1064     -554.6765     -528.5701   312.16
   175.00       23.9304     -552.5963     -528.6660   286.14
   176.00       21.8365     -550.4122     -528.5758   261.10
   177.00       22.3835     -550.8631     -528.4796   267.65
   178.00       25.6904     -554.1791     -528.4887   307.19
   179.00       28.4442     -556.9273     -528.4831   340.11
   180.00       27.7715     -556.1409     -528.3695   332.07
   181.00       24.9818     -553.2535     -528.2717   298.71
   182.00       23.5162     -551.8883     -528.3721   281.19
   183.00       24.2880     -552.8915     -528.6035   290.42
   184.00       25.4057     -554.1072     -528.7015   303.78
   185.00       25.8616     -554.5056     -528.6440   309.23
   186.00       26.6447     -555.3928     -528.7481   318.60
   187.00       27.6613     -556.8447     -529.1834   330.75
   188.00       26.6845     -556.3614     -529.6769   319.07
   189.00       23.2079     -553.1091     -529.9012   277.50
   190.00       20.6013     -550.5630     -529.9617   246.33
   191.00       21.9434     -552.0815     -530.1381   262.38
   192.00       25.5390     -555.8698     -530.3308   305.38
   193.00       27.0798     -557.3367     -530.2569   323.80
   194.00       25.4861     -555.4704     -529.9843   304.74
   195.00       23.6545     -553.4951     -529.8406   282.84
   196.00       23.4924     -553.3789     -529.8865   280.90
   197.00       23.6855     -553.4798     -529.7942   283.21
   198.00       23.1961     -552.5551     -529.3590   277.36
   199.00       23.7348     -552.5646     -528.8298   283.80
   200.00       26.5660     -555.0752     -528.5092   317.66
   201.00       29.0790     -557.4061     -528.3271   347.70
   202.00       27.8302     -555.8700     -528.0398   332.77
   203.00       24.1050     -551.7811     -527.6761   288.23
   204.00       22.6454     -550.1785     -527.5331   270.78
   205.00       24.9857     -552.6486     -527.6628   298.76
   206.00       27.6226     -555.3518     -527.7292   330.29
   207.00       27.5115     -555.0954     -527.5839   328.96
   208.00       26.1353     -553.6711     -527.5359   312.51
   209.00       25.9973     -553.8689     -527.8716   310.86
   210.00       26.1258     -554.5107     -528.3849   312.39
   211.00       24.3798     -553.0274     -528.6475   291.52
   212.00       22.1946     -550.8488     -528.6543   265.39
   213.00       22.9700     -551.7692     -528.7993   274.66
   214.00       26.2208     -555.3959     -529.1751   313.53
   215.00       27.3322     -556.7456     -529.4134   326.82
   216.00       24.3257     -553.6157     -529.2900   290.87
   217.00       21.1055     -550.1923     -529.0868   252.36
   218.00       21.6637     -550.7623     -529.0986   259.04
   219.00       24.5374     -553.6090     -529.0716   293.40
   220.00       25.8788     -554.5134     -528.6346   309.44
   221.00       25.5891     -553.5885     -527.9995   305.97
   222.00       26.4091     -554.0856     -527.6765   315.78
   223.00       28.0821     -555.8013     -527.7193   335.78
   224.00       27.3481     -555.0608     -527.7126   327.01
   225.00       24.1501     -551.6266     -527.4765   288.77
   226.00       22.9073     -550.2612     -527.3539   273.91
   227.00       25.8759     -553.4842     -527.6084   309.40
   228.00       29.2322     -557.2187     -527.9865   349.54
   229.00       28.4801     -556.6678     -528.1878   340.54
   230.00       24.9659     -553.3178     -528.3520   298.52
   231.00       23.1792     -551.9700     -528.7908   277.16
   232.00       23.8809     -553.2912     -529.4102   285.55
   233.00       24.2101     -553.9825     -529.7723   289.49
   234.00       23.3431     -553.1240     -529.7809   279.12
   235.00       23.6606     -553.4759     -529.8153   282.92
   236.00       25.8372     -555.9194     -530.0822   308.94
   237.00       26.7520     -557.0702     -530.3182   319.88
   238.00       24.3661     -554.6008     -530.2347   291.35
   239.00       21.6146     -551.6212     -530.0066   258.45
   240.00       22.3534     -552.3191     -529.9657   267.29
   241.00       25.6869     -555.7108     -530.0239   307.14
   242.00       27.2912     -557.1297     -529.8385   326.33
   243.00       25.7709     -555.1945     -529.4236   308.15
   244.00       24.1750     -553.3296     -529.1547   289.07
   245.00       24.6027     -553.7751     -529.1724   294.18
   246.00       25.1866     -554.3236     -529.1370   301.16
   247.00       24.1910     -552.9613     -528.7704   289.26
   248.00       23.6710     -551.9968     -528.3258   283.04
   249.00       25.9487     -554.1264     -528.1776   310.28
   250.00       28.7895     -557.0301     -528.2406   344.24
   251.00       28.0755     -556.2521     -528.1765   335.71
   252.00       24.3985     -552.3663     -527.9677   291.74
   253.00       22.5601     -550.5040     -527.9440   269.76
   254.00       24.5262     -552.7277     -528.2014   293.27
   255.00       27.0084     -555.4061     -528.3978   322.95
   256.00       26.9077     -555.2489     -528.3412   321.74
   257.00       25.6036     -553.9349     -528.3313   306.15
   258.00       25.5512     -554.2194     -528.6682   305.52
   259.00       25.7890     -554.9391     -529.1501   308.37
   260.00       24.2089     -553.5758     -529.3669   289.47
   261.00       22.1525     -551.4817     -529.3293   264.88
   262.00       22.8546     -552.2467     -529.3920   273.28
   263.00       26.0558     -555.6822     -529.6264   311.56
   264.00       27.7610     -557.5117     -529.7507   331.95
   265.00       25.9620     -555.6200     -529.6581   310.43
   266.00       23.4223     -553.0137     -529.5913   280.07
   267.00       23.2905     -553.0358     -529.7452   278.49
   268.00       24.8522     -554.7865     -529.9342   297.16
   269.00       25.5576     -555.4548     -529.8972   305.60
   270.00       25.1998     -554.9235     -529.7237   301.32
   271.00       25.4956     -555.2066     -529.7109   304.86
   272.00       26.4205     -556.3244     -529.9040   315.92
   273.00       25.9459     -555.9903     -530.0443   310.24
   274.00       23.7583     -553.7368     -529.9785   284.08
   275.00       22.5114     -552.3929     -529.8815   269.17
   276.00       24.0976     -554.0358     -529.9383   288.14
   277.00       26.6579     -556.6878     -530.0299   318.76
   278.00       27.0536     -557.0177     -529.9641   323.49
   279.00       25.1930     -555.0021     -529.8091   301.24
   280.00       23.6986     -553.4749     -529.7763   283.37
   281.00       23.8644     -553.7317     -529.8673   285.35
   282.00       24.4094     -554.2513     -529.8419   291.87
   283.00       24.3212     -553.9111     -529.5899   290.81
   284.00       24.5598     -553.8664     -529.3066   293.67
   285.00       25.8460     -555.0283     -529.1823   309.05
   286.00       26.6483     -555.7705     -529.1222   318.64
   287.00       25.3098     -554.2319     -528.9221   302.64
   288.00       23.1022     -551.7073     -528.6051   276.24
   289.00       22.8909     -551.2591     -528.3682   273.71
   290.00       25.1454     -553.3686     -528.2233   300.67
   291.00       27.3446     -555.3380     -527.9934   326.97
   292.00       27.5430     -555.2180     -527.6749   329.34
   293.00       26.6129     -554.1125     -527.4996   318.22
   294.00       26.1325     -553.7385     -527.6060   312.47
   295.00       25.9499     -553.8057     -527.8558   310.29
   296.00       25.2335     -553.2778     -528.0443   301.72
   297.00       24.5372     -552.7161     -528.1790   293.40
   298.00       25.0463     -553.4603     -528.4140   299.48
   299.00       26.2898     -555.0712     -528.7814   314.35
   300.00       26.3267     -555.4585     -529.1318   314.80
   301.00       24.5119     -553.8585     -529.3466   293.09
   302.00       22.6626     -552.1491     -529.4866   270.98
   303.00       22.7002     -552.3611     -529.6609   271.43
   304.00       24.1786     -553.9893     -529.8108   289.11
   305.00       25.1250     -554.9155     -529.7906   300.43
   306.00       24.7703     -554.3773     -529.6070   296.18
   307.00       24.2109     -553.6261     -529.4152   289.50
   308.00       24.3647     -553.6552     -529.2904   291.34
   309.00       24.6270     -553.7189     -529.0919   294.47
   310.00       24.3521     -553.1068     -528.7547   291.18
   311.00       24.3579     -552.7012     -528.3433   291.25
   312.00       25.7072     -553.7528     -528.0456   307.39
   313.00       27.4946     -555.3923     -527.8977   328.76
   314.00       27.4879     -555.2505     -527.7626   328.68
   315.00       25.3971     -552.9682     -527.5712   303.68
   316.00       23.7168     -551.1639     -527.4471   283.59
   317.00       24.4070     -551.9006     -527.4936   291.84
   318.00       26.3133     -553.9032     -527.5899   314.63
   319.00       27.0831     -554.6753     -527.5922   323.84
   320.00       26.4567     -554.0550     -527.5984   316.35
   321.00       25.9301     -553.7450     -527.8149   310.05
   322.00       25.8594     -554.0917     -528.2323   309.21
   323.00       25.0930     -553.7008     -528.6078   300.04
   324.00       23.5651     -552.3621     -528.7970   281.77
   325.00       23.0970     -552.0341     -528.9371   276.18
   326.00       24.6537     -553.8337     -529.1800   294.79
